用户: Administrator
翡翠: 寻峰报表(8个峰标,最大峰噪比=18.6)
日期: 2020年11月6日(周五)04:57p
文件: [MO.mdi] DX-27 Omg 35kV/30mA Slit:1deg&1deg&.2mm Monochromator: ON Ts-Td
扫描: 20.0/140.0/0.02/1(秒),Cu,I(p)=1404,20/11/06 04:30p
寻峰: 27(点)/二次项筛选,阈值=1.0,下限=0.1%,背景=3/1.0,峰标=峰顶法
附注: 强度=计数,2θ(0)=0.0(度),计算d值用的波长=1.54059埃(Cu/Kα1)

    2θ   d(埃)  背景  峰高  峰高%  半峰宽  晶粒(埃)  
 38.326  2.3466     5   112    8.1   0.149     >1000
 40.441  2.2286    11  1393  100.0   0.267       409
 58.618  1.5736     3   288   20.7   0.273       426
 73.640  1.2853    13   232   16.7   0.394       290
 87.499  1.1139     4    78    5.6   0.450       275
101.339  0.9958     6   168   12.0   0.463       303
116.016  0.9082     2    18    1.3   0.600       270
132.598  0.8413    30   130    9.3   0.593       361
